#!/bin/sh
#
# This script will plot ray paths using GMT. If you want to
#use this as a data file for psxy in another script, delete these
# first lines, to the last psxy, as well as the last line.
#
# draw surface and label distances.
PS=GMT_JP_polar.ps
gmt psbasemap -K -P -R0/360/0/6371.0 -JP6.0i -Bx30p -By500 -BN > $PS
# draw circles for branches, note these are scaled for a
# map using -JP6.0i
gmt psxy -K -O -P -R -JP -Sc -A >> $PS <<ENDLAYERS
0.0 0.0 6.0i
0.0 0.0 6.0i
0.0 0.0 5.9858737i
0.0 0.0 5.9770207i
0.0 0.0 5.7928114i
0.0 0.0 5.623293i
0.0 0.0 5.3690157i
0.0 0.0 3.2773504i
0.0 0.0 1.1503688i
ENDLAYERS

# draw paths
gmt psxy -P -R -K -O -JP -A >> $PS <<END
> Pdiff at  1010.95 seconds at   150.00 degrees for a    300.0 km deep source in the prem model with rayParam    4.428 s/deg.
    0.00    6071.0
    0.04    6061.0
    0.04    6060.1
    0.04    6059.2
    0.12    6037.7
    0.21    6016.0
    0.26    6001.4
    0.33    5984.5
    0.38    5971.0
    0.42    5962.3
    0.45    5953.5
    0.53    5935.6
    0.54    5932.7
    0.56    5926.9
    0.59    5921.0
    0.65    5906.2
    0.72    5891.1
    0.81    5871.0
    0.85    5861.7
    0.88    5855.1
    0.91    5848.3
    0.97    5834.8
    1.04    5821.0
    1.04    5820.4
    1.08    5812.3
    1.12    5804.2
    1.19    5787.7
    1.28    5771.0
    1.31    5764.6
    1.34    5758.2
    1.41    5745.3
    1.43    5740.7
    1.45    5736.0
    1.54    5718.5
    1.63    5701.0
    1.65    5697.6
    1.67    5694.2
    1.73    5683.3
    1.79    5672.2
    1.92    5650.0
    2.07    5623.1
    2.21    5600.0
    2.32    5581.1
    2.43    5562.1
    2.51    5550.0
    2.54    5544.0
    2.58    5537.9
    2.70    5519.0
    2.76    5509.5
    2.82    5500.0
    2.96    5477.4
    3.11    5454.7
    3.15    5447.9
    3.22    5437.6
    3.23    5436.5
    3.24    5435.3
    3.25    5433.0
    3.28    5428.3
    3.31    5423.6
    3.35    5418.9
    3.38    5414.2
    3.41    5409.5
    3.47    5400.0
    3.56    5387.1
    3.65    5374.1
    3.74    5361.1
    3.83    5348.1
    3.91    5336.1
    4.00    5324.1
    4.17    5300.0
    4.38    5270.3
    4.61    5240.3
    4.76    5220.2
    4.91    5200.0
    5.09    5176.9
    5.33    5146.9
    5.57    5116.6
    5.59    5115.0
    5.60    5113.5
    5.62    5110.3
    5.67    5104.1
    5.71    5100.0
    5.78    5091.5
    5.99    5066.1
    6.31    5028.8
    6.56    5000.0
    6.64    4991.1
    7.00    4950.6
    7.19    4930.1
    7.38    4909.6
    7.48    4900.0
    7.74    4872.3
    7.92    4853.4
    8.11    4834.5
    8.46    4800.0
    8.52    4794.4
    8.73    4774.0
    8.94    4753.5
    9.34    4716.4
    9.52    4700.0
    9.75    4678.8
   10.19    4640.8
   10.41    4621.6
   10.64    4602.4
   10.67    4600.0
   11.11    4563.5
   11.35    4544.0
   11.60    4524.3
   11.91    4500.0
   12.11    4484.7
   12.65    4444.7
   12.71    4439.7
   13.27    4400.0
   13.57    4378.9
   13.68    4371.6
   14.21    4335.9
   14.76    4300.0
   15.39    4260.5
   16.05    4220.8
   16.23    4210.4
   16.40    4200.0
   17.29    4150.2
   18.24    4100.0
   18.45    4089.4
   18.62    4080.8
   18.79    4072.3
   19.54    4036.2
   19.92    4018.2
   20.32    4000.0
   21.16    3963.2
   22.05    3926.1
   22.38    3913.1
   22.71    3900.0
   23.38    3875.1
   24.05    3850.2
   24.80    3825.1
   25.54    3800.0
   25.83    3790.8
   25.96    3786.6
   26.10    3782.4
   26.79    3761.9
   27.49    3741.3
   28.27    3720.7
   29.04    3700.0
   29.91    3680.3
   30.78    3660.7
   31.65    3641.0
   32.20    3630.0
   32.99    3615.0
   33.84    3600.0
   34.65    3587.4
   35.46    3574.8
   36.27    3562.2
   37.05    3552.7
   37.84    3543.2
   38.62    3533.8
   39.41    3524.3
   40.37    3516.2
   41.32    3508.1
   42.28    3500.0
   43.27    3496.7
   44.26    3493.3
   45.26    3490.0
   46.25    3486.7
   47.24    3483.3
   48.23    3480.0
   49.22    3480.0
   50.21    3480.0
   51.20    3480.0
   52.20    3480.0
   53.19    3480.0
   54.18    3480.0
   55.17    3480.0
   56.16    3480.0
   57.16    3480.0
   58.15    3480.0
   59.14    3480.0
   60.13    3480.0
   61.12    3480.0
   62.12    3480.0
   63.11    3480.0
   64.10    3480.0
   65.09    3480.0
   66.09    3480.0
   67.08    3480.0
   68.07    3480.0
   69.06    3480.0
   70.05    3480.0
   71.05    3480.0
   72.04    3480.0
   73.03    3480.0
   74.02    3480.0
   75.01    3480.0
   76.01    3480.0
   77.00    3480.0
   77.99    3480.0
   78.98    3480.0
   79.97    3480.0
   80.97    3480.0
   81.96    3480.0
   82.95    3480.0
   83.94    3480.0
   84.93    3480.0
   85.93    3480.0
   86.92    3480.0
   87.91    3480.0
   88.90    3480.0
   89.89    3480.0
   90.89    3480.0
   91.88    3480.0
   92.87    3480.0
   93.86    3480.0
   94.86    3480.0
   95.85    3480.0
   96.84    3480.0
   97.83    3480.0
   98.82    3480.0
   99.82    3480.0
  100.81    3480.0
  101.80    3483.3
  102.79    3486.7
  103.78    3490.0
  104.77    3493.3
  105.76    3496.7
  106.75    3500.0
  107.71    3508.1
  108.67    3516.2
  109.63    3524.3
  110.41    3533.8
  111.20    3543.2
  111.98    3552.7
  112.77    3562.2
  113.58    3574.8
  114.39    3587.4
  115.20    3600.0
  116.04    3615.0
  116.84    3630.0
  117.39    3641.0
  118.26    3660.7
  119.12    3680.3
  119.99    3700.0
  120.77    3720.7
  121.55    3741.3
  122.24    3761.9
  122.94    3782.4
  123.07    3786.6
  123.21    3790.8
  123.50    3800.0
  124.24    3825.1
  124.98    3850.2
  125.65    3875.1
  126.33    3900.0
  126.66    3913.1
  126.98    3926.1
  127.88    3963.2
  128.72    4000.0
  129.11    4018.2
  129.50    4036.2
  130.24    4072.3
  130.42    4080.8
  130.59    4089.4
  130.79    4100.0
  131.74    4150.2
  132.63    4200.0
  132.81    4210.4
  132.99    4220.8
  133.65    4260.5
  134.28    4300.0
  134.83    4335.9
  135.36    4371.6
  135.47    4378.9
  135.77    4400.0
  136.32    4439.7
  136.39    4444.7
  136.93    4484.7
  137.13    4500.0
  137.44    4524.3
  137.69    4544.0
  137.93    4563.5
  138.37    4600.0
  138.40    4602.4
  138.63    4621.6
  138.85    4640.8
  139.28    4678.8
  139.52    4700.0
  139.70    4716.4
  140.09    4753.5
  140.31    4774.0
  140.52    4794.4
  140.58    4800.0
  140.92    4834.5
  141.11    4853.4
  141.29    4872.3
  141.56    4900.0
  141.65    4909.6
  141.84    4930.1
  142.03    4950.6
  142.40    4991.1
  142.47    5000.0
  142.73    5028.8
  143.04    5066.1
  143.26    5091.5
  143.33    5100.0
  143.36    5104.1
  143.41    5110.3
  143.44    5113.5
  143.45    5115.0
  143.46    5116.6
  143.71    5146.9
  143.94    5176.9
  144.12    5200.0
  144.28    5220.2
  144.43    5240.3
  144.65    5270.3
  144.87    5300.0
  145.04    5324.1
  145.12    5336.1
  145.21    5348.1
  145.30    5361.1
  145.39    5374.1
  145.48    5387.1
  145.56    5400.0
  145.63    5409.5
  145.66    5414.2
  145.69    5418.9
  145.72    5423.6
  145.75    5428.3
  145.78    5433.0
  145.80    5435.3
  145.81    5436.5
  145.81    5437.6
  145.88    5447.9
  145.93    5454.7
  146.07    5477.4
  146.22    5500.0
  146.28    5509.5
  146.34    5519.0
  146.45    5537.9
  146.49    5544.0
  146.53    5550.0
  146.60    5562.1
  146.72    5581.1
  146.83    5600.0
  146.96    5623.1
  147.12    5650.0
  147.25    5672.2
  147.31    5683.3
  147.37    5694.2
  147.39    5697.6
  147.40    5701.0
  147.49    5718.5
  147.58    5736.0
  147.61    5740.7
  147.63    5745.3
  147.69    5758.2
  147.73    5764.6
  147.76    5771.0
  147.84    5787.7
  147.92    5804.2
  147.96    5812.3
  148.00    5820.4
  148.00    5821.0
  148.06    5834.8
  148.13    5848.3
  148.16    5855.1
  148.19    5861.7
  148.23    5871.0
  148.32    5891.1
  148.38    5906.2
  148.45    5921.0
  148.47    5926.9
  148.50    5932.7
  148.51    5935.6
  148.58    5953.5
  148.62    5962.3
  148.65    5971.0
  148.71    5984.5
  148.77    6001.4
  148.83    6016.0
  148.91    6037.7
  148.99    6059.2
  149.00    6060.1
  149.00    6061.0
  149.04    6071.0
  149.07    6080.5
  149.12    6093.3
  149.16    6106.0
  149.18    6111.6
  149.20    6117.1
  149.24    6128.2
  149.25    6130.6
  149.26    6133.1
  149.29    6142.1
  149.31    6146.5
  149.32    6148.8
  149.32    6151.0
  149.38    6168.5
  149.44    6186.0
  149.49    6203.5
  149.55    6221.0
  149.60    6238.5
  149.63    6247.2
  149.66    6256.0
  149.68    6263.3
  149.69    6264.0
  149.73    6277.5
  149.77    6291.0
  149.80    6301.0
  149.83    6311.0
  149.85    6316.0
  149.86    6321.0
  149.88    6326.0
  149.90    6331.0
  149.91    6334.9
  149.92    6338.8
  149.93    6342.7
  149.94    6344.6
  149.94    6346.6
  149.94    6346.9
  149.96    6351.4
  149.96    6353.7
  149.97    6354.9
  149.97    6356.0
  149.98    6363.5
  149.99    6367.3
  150.00    6369.1
  150.00    6370.1
  150.00    6371.0
> PKIKP at  1148.07 seconds at   150.00 degrees for a    300.0 km deep source in the prem model with rayParam    1.569 s/deg.
    0.00    6071.0
    0.01    6061.0
    0.01    6060.1
    0.01    6059.2
    0.04    6037.7
    0.07    6016.0
    0.09    6001.4
    0.11    5984.5
    0.13    5971.0
    0.14    5962.3
    0.15    5953.5
    0.17    5935.6
    0.18    5932.7
    0.19    5926.9
    0.19    5921.0
    0.22    5906.2
    0.24    5891.1
    0.27    5871.0
    0.28    5861.7
    0.29    5855.1
    0.30    5848.3
    0.32    5834.8
    0.34    5821.0
    0.34    5820.4
    0.35    5812.3
    0.37    5804.2
    0.39    5787.7
    0.42    5771.0
    0.43    5764.6
    0.44    5758.2
    0.46    5745.3
    0.47    5740.7
    0.47    5736.0
    0.50    5718.5
    0.53    5701.0
    0.54    5697.6
    0.54    5694.2
    0.56    5683.3
    0.58    5672.2
    0.62    5650.0
    0.67    5623.1
    0.71    5600.0
    0.75    5581.1
    0.78    5562.1
    0.81    5550.0
    0.82    5544.0
    0.83    5537.9
    0.86    5519.0
    0.88    5509.5
    0.90    5500.0
    0.95    5477.4
    0.99    5454.7
    1.00    5447.9
    1.03    5437.6
    1.03    5436.5
    1.03    5435.3
    1.03    5433.0
    1.04    5428.3
    1.05    5423.6
    1.06    5418.9
    1.07    5414.2
    1.08    5409.5
    1.10    5400.0
    1.13    5387.1
    1.16    5374.1
    1.18    5361.1
    1.21    5348.1
    1.24    5336.1
    1.26    5324.1
    1.31    5300.0
    1.38    5270.3
    1.44    5240.3
    1.49    5220.2
    1.54    5200.0
    1.59    5176.9
    1.66    5146.9
    1.73    5116.6
    1.73    5115.0
    1.74    5113.5
    1.74    5110.3
    1.76    5104.1
    1.77    5100.0
    1.79    5091.5
    1.85    5066.1
    1.94    5028.8
    2.02    5000.0
    2.04    4991.1
    2.14    4950.6
    2.20    4930.1
    2.25    4909.6
    2.28    4900.0
    2.35    4872.3
    2.40    4853.4
    2.46    4834.5
    2.55    4800.0
    2.57    4794.4
    2.63    4774.0
    2.69    4753.5
    2.79    4716.4
    2.84    4700.0
    2.91    4678.8
    3.02    4640.8
    3.08    4621.6
    3.14    4602.4
    3.15    4600.0
    3.26    4563.5
    3.33    4544.0
    3.39    4524.3
    3.47    4500.0
    3.52    4484.7
    3.66    4444.7
    3.68    4439.7
    3.82    4400.0
    3.89    4378.9
    3.92    4371.6
    4.05    4335.9
    4.18    4300.0
    4.33    4260.5
    4.48    4220.8
    4.52    4210.4
    4.56    4200.0
    4.76    4150.2
    4.97    4100.0
    5.01    4089.4
    5.05    4080.8
    5.09    4072.3
    5.24    4036.2
    5.32    4018.2
    5.40    4000.0
    5.57    3963.2
    5.74    3926.1
    5.80    3913.1
    5.86    3900.0
    6.10    3850.2
    6.36    3800.0
    6.40    3790.8
    6.42    3786.6
    6.45    3782.4
    6.66    3741.3
    6.88    3700.0
    7.21    3641.0
    7.27    3630.0
    7.35    3615.0
    7.44    3600.0
    7.66    3562.2
    7.89    3524.3
    8.04    3500.0
    8.16    3480.0
    8.17    3479.0
    8.17    3478.0
    8.18    3476.0
    8.19    3472.0
    8.22    3463.9
    8.28    3447.7
    8.36    3424.0
    8.45    3400.0
    8.55    3374.0
    8.60    3360.9
    8.65    3347.7
    8.75    3324.0
    8.79    3312.0
    8.84    3300.0
    8.95    3274.0
    9.00    3261.0
    9.06    3247.8
    9.16    3224.0
    9.26    3200.0
    9.37    3175.3
    9.43    3162.9
    9.49    3150.4
    9.60    3125.3
    9.66    3112.7
    9.72    3100.0
    9.85    3074.0
    9.98    3047.8
   10.00    3044.5
   10.13    3018.6
   10.20    3004.8
   10.23    3000.0
   10.35    2976.3
   10.48    2952.5
   10.62    2926.3
   10.77    2900.0
   10.81    2893.0
   10.85    2886.0
   11.05    2852.5
   11.25    2818.7
   11.29    2811.5
   11.33    2805.8
   11.36    2800.0
   11.52    2775.4
   11.60    2763.0
   11.68    2750.6
   11.84    2725.4
   12.02    2700.0
   12.08    2690.9
   12.14    2681.9
   12.38    2647.2
   12.64    2612.3
   12.68    2605.8
   12.71    2602.9
   12.73    2600.0
   12.95    2571.0
   13.17    2541.8
   13.51    2500.0
   13.58    2492.1
   13.65    2483.5
   13.72    2474.8
   13.91    2452.8
   14.10    2430.8
   14.22    2416.6
   14.33    2404.9
   14.34    2403.7
   14.35    2402.5
   14.37    2400.0
   14.40    2397.0
   14.43    2393.9
   14.49    2387.8
   14.53    2382.9
   14.58    2378.1
   14.67    2368.4
   14.76    2358.6
   14.85    2348.8
   14.97    2336.7
   15.09    2324.5
   15.33    2300.0
   15.58    2275.2
   15.71    2262.7
   15.84    2250.2
   16.11    2225.2
   16.39    2200.0
   16.87    2158.0
   16.98    2149.0
   17.58    2100.0
   18.22    2050.2
   18.91    2000.0
   19.65    1949.1
   20.14    1917.2
   20.41    1900.0
   21.25    1849.2
   22.12    1800.0
   23.07    1750.2
   23.58    1725.1
   24.09    1700.0
   24.45    1683.3
   24.82    1666.6
   25.58    1633.4
   26.38    1600.0
   27.03    1575.1
   27.67    1550.2
   28.38    1525.1
   29.08    1500.0
   29.79    1476.9
   30.51    1453.7
   31.29    1430.4
   32.07    1407.1
   32.33    1400.0
   33.27    1375.1
   34.21    1350.1
   34.91    1333.4
   35.62    1316.7
   36.33    1300.0
   37.30    1280.4
   38.28    1260.8
   39.25    1241.1
   40.23    1221.5
   40.33    1219.9
   40.43    1218.4
   40.54    1216.8
   40.64    1215.3
   40.85    1212.1
   41.06    1209.0
   41.37    1204.5
   41.68    1200.0
   42.35    1190.7
   43.04    1181.3
   43.82    1171.2
   44.63    1161.0
   45.48    1150.9
   46.36    1140.7
   47.32    1130.5
   48.27    1120.4
   48.98    1113.6
   49.69    1106.8
   50.40    1100.0
   51.10    1094.0
   51.81    1088.0
   52.51    1082.0
   53.32    1076.0
   54.12    1070.0
   54.92    1064.0
   55.75    1058.7
   56.58    1053.3
   57.41    1048.0
   58.40    1042.7
   59.40    1037.4
   60.40    1032.0
   61.38    1028.0
   62.36    1024.0
   63.35    1020.0
   64.33    1016.0
   65.25    1014.0
   66.18    1012.0
   67.11    1010.0
   68.03    1008.0
   68.96    1006.0
   69.88    1004.0
   70.81    1002.0
   71.73    1000.0
   72.51     999.6
   73.29     999.2
   74.06     998.9
   74.84     998.5
   75.61     998.9
   76.39     999.2
   77.17     999.6
   77.94    1000.0
   78.87    1002.0
   79.79    1004.0
   80.72    1006.0
   81.64    1008.0
   82.57    1010.0
   83.50    1012.0
   84.42    1014.0
   85.35    1016.0
   86.33    1020.0
   87.31    1024.0
   88.29    1028.0
   89.28    1032.0
   90.27    1037.4
   91.27    1042.7
   92.27    1048.0
   93.10    1053.3
   93.93    1058.7
   94.75    1064.0
   95.56    1070.0
   96.36    1076.0
   97.16    1082.0
   97.87    1088.0
   98.57    1094.0
   99.28    1100.0
   99.99    1106.8
  100.70    1113.6
  101.41    1120.4
  102.36    1130.5
  103.31    1140.7
  104.20    1150.9
  105.05    1161.0
  105.86    1171.2
  106.64    1181.3
  107.33    1190.7
  107.99    1200.0
  108.31    1204.5
  108.62    1209.0
  108.83    1212.1
  109.04    1215.3
  109.14    1216.8
  109.24    1218.4
  109.35    1219.9
  109.45    1221.5
  110.42    1241.1
  111.40    1260.8
  112.37    1280.4
  113.35    1300.0
  114.06    1316.7
  114.76    1333.4
  115.47    1350.1
  116.41    1375.1
  117.35    1400.0
  117.60    1407.1
  118.39    1430.4
  119.17    1453.7
  119.88    1476.9
  120.59    1500.0
  121.30    1525.1
  122.01    1550.2
  122.65    1575.1
  123.29    1600.0
  124.10    1633.4
  124.86    1666.6
  125.23    1683.3
  125.58    1700.0
  126.09    1725.1
  126.61    1750.2
  127.55    1800.0
  128.42    1849.2
  129.26    1900.0
  129.54    1917.2
  130.03    1949.1
  130.77    2000.0
  131.46    2050.2
  132.10    2100.0
  132.70    2149.0
  132.80    2158.0
  133.28    2200.0
  133.56    2225.2
  133.83    2250.2
  133.96    2262.7
  134.09    2275.2
  134.35    2300.0
  134.59    2324.5
  134.71    2336.7
  134.82    2348.8
  134.92    2358.6
  135.01    2368.4
  135.10    2378.1
  135.15    2382.9
  135.19    2387.8
  135.25    2393.9
  135.27    2397.0
  135.30    2400.0
  135.32    2402.5
  135.33    2403.7
  135.35    2404.9
  135.45    2416.6
  135.58    2430.8
  135.77    2452.8
  135.96    2474.8
  136.03    2483.5
  136.10    2492.1
  136.16    2500.0
  136.50    2541.8
  136.73    2571.0
  136.95    2600.0
  136.97    2602.9
  136.99    2605.8
  137.04    2612.3
  137.29    2647.2
  137.54    2681.9
  137.60    2690.9
  137.66    2700.0
  137.83    2725.4
  138.00    2750.6
  138.08    2763.0
  138.16    2775.4
  138.31    2800.0
  138.35    2805.8
  138.38    2811.5
  138.43    2818.7
  138.63    2852.5
  138.83    2886.0
  138.87    2893.0
  138.91    2900.0
  139.05    2926.3
  139.20    2952.5
  139.33    2976.3
  139.45    3000.0
  139.48    3004.8
  139.55    3018.6
  139.68    3044.5
  139.70    3047.8
  139.82    3074.0
  139.95    3100.0
  140.01    3112.7
  140.07    3125.3
  140.19    3150.4
  140.24    3162.9
  140.30    3175.3
  140.41    3200.0
  140.52    3224.0
  140.62    3247.8
  140.67    3261.0
  140.73    3274.0
  140.83    3300.0
  140.88    3312.0
  140.93    3324.0
  141.02    3347.7
  141.08    3360.9
  141.13    3374.0
  141.22    3400.0
  141.31    3424.0
  141.40    3447.7
  141.46    3463.9
  141.49    3472.0
  141.50    3476.0
  141.51    3478.0
  141.51    3479.0
  141.51    3480.0
  141.64    3500.0
  141.79    3524.3
  142.01    3562.2
  142.24    3600.0
  142.32    3615.0
  142.41    3630.0
  142.47    3641.0
  142.80    3700.0
  143.02    3741.3
  143.23    3782.4
  143.25    3786.6
  143.27    3790.8
  143.32    3800.0
  143.57    3850.2
  143.81    3900.0
  143.87    3913.1
  143.93    3926.1
  144.11    3963.2
  144.27    4000.0
  144.35    4018.2
  144.43    4036.2
  144.59    4072.3
  144.62    4080.8
  144.66    4089.4
  144.71    4100.0
  144.91    4150.2
  145.11    4200.0
  145.15    4210.4
  145.20    4220.8
  145.35    4260.5
  145.50    4300.0
  145.63    4335.9
  145.76    4371.6
  145.79    4378.9
  145.86    4400.0
  146.00    4439.7
  146.02    4444.7
  146.15    4484.7
  146.20    4500.0
  146.28    4524.3
  146.35    4544.0
  146.41    4563.5
  146.53    4600.0
  146.53    4602.4
  146.59    4621.6
  146.65    4640.8
  146.77    4678.8
  146.83    4700.0
  146.88    4716.4
  146.99    4753.5
  147.05    4774.0
  147.11    4794.4
  147.12    4800.0
  147.22    4834.5
  147.27    4853.4
  147.32    4872.3
  147.40    4900.0
  147.42    4909.6
  147.48    4930.1
  147.53    4950.6
  147.64    4991.1
  147.66    5000.0
  147.73    5028.8
  147.82    5066.1
  147.89    5091.5
  147.91    5100.0
  147.92    5104.1
  147.93    5110.3
  147.94    5113.5
  147.94    5115.0
  147.95    5116.6
  148.02    5146.9
  148.09    5176.9
  148.14    5200.0
  148.19    5220.2
  148.23    5240.3
  148.30    5270.3
  148.36    5300.0
  148.41    5324.1
  148.44    5336.1
  148.47    5348.1
  148.49    5361.1
  148.52    5374.1
  148.55    5387.1
  148.57    5400.0
  148.59    5409.5
  148.60    5414.2
  148.61    5418.9
  148.62    5423.6
  148.63    5428.3
  148.64    5433.0
  148.65    5435.3
  148.65    5436.5
  148.65    5437.6
  148.67    5447.9
  148.68    5454.7
  148.73    5477.4
